Bruker Nano GmbH Berlin, Germany
Esprit 1.9

Date: 15.09.2015 04:31:17
Real time: 15455
Life time: 14830
Pulse density: 0


Detector type: XFlash 430
Window type: Custom type
Detector thickness: 0.45
Si dead layer:0.029

Calibration, lin.: 10.004
Calibration, abs.: -959.083
Mn FWHM: 150.501
Fano factor: 0.11
Channels: 4096

Energy Counts
-0.9591    0
-0.9491    0
-0.9391    0
-0.9291    0
-0.9191    0
-0.9091    0
-0.8991    0
-0.8891    0
-0.8791    0
 -0.869    0
 -0.859    0
 -0.849    0
 -0.839    0
 -0.829    0
 -0.819    0
 -0.809    0
 -0.799    0
 -0.789    0
 -0.779    0
 -0.769    0
 -0.759    0
 -0.749    0
 -0.739    0
 -0.729    0
 -0.719    0
 -0.709    0
 -0.699    0
 -0.689    0
 -0.679    0
 -0.669    0
 -0.659    0
 -0.649    0
 -0.639    0
 -0.629    0
-0.6189    0
-0.6089    0
-0.5989    0
-0.5889    0
-0.5789    0
-0.5689    0
-0.5589    0
-0.5489    0
-0.5389    0
-0.5289    0
-0.5189    0
-0.5089    0
-0.4989    0
-0.4889    0
-0.4789    0
-0.4689    0
-0.4589    0
-0.4489    0
-0.4389    0
-0.4289    0
-0.4189    0
-0.4089    0
-0.3989    0
-0.3889    0
-0.3789    0
-0.3688    0
-0.3588    0
-0.3488    0
-0.3388    0
-0.3288    0
-0.3188    0
-0.3088    0
-0.2988    0
-0.2888    0
-0.2788    0
-0.2688    0
-0.2588    0
-0.2488    0
-0.2388    0
-0.2288    0
-0.2188    0
-0.2088    0
-0.1988    0
-0.1888    0
-0.1788    0
-0.1688    0
-0.1588    0
-0.1488    1
-0.1388    0
-0.1288    3
-0.1187   11
-0.1087   19
-0.0987   62
-0.0887  110
-0.0787  181
-0.0687  277
-0.0587  486
-0.0487  690
-0.0387  961
-0.0287 1134
-0.0187 1353
-0.0087 1517
 0.0013 1502
 0.0113 1412
 0.0213 1287
 0.0313 1078
 0.0413  917
 0.0513  735
 0.0613  568
 0.0713  406
 0.0813  276
 0.0913  188
 0.1013  113
 0.1113   83
 0.1213   36
 0.1314   28
 0.1414   13
 0.1514    3
 0.1614    2
 0.1714    0
 0.1814    0
 0.1914    0
 0.2014    0
 0.2114    0
 0.2214    0
 0.2314    0
 0.2414    0
 0.2514    0
 0.2614    0
 0.2714    0
 0.2814    0
 0.2914    0
 0.3014    0
 0.3114    0
 0.3214    0
 0.3314    0
 0.3414    0
 0.3514    0
 0.3614    0
 0.3714    0
 0.3815    0
 0.3915    0
 0.4015    0
 0.4115    0
 0.4215    0
 0.4315    0
 0.4415    0
 0.4515    0
 0.4615    0
 0.4715    0
 0.4815    0
 0.4915    0
 0.5015    0
 0.5115    0
 0.5215    0
 0.5315    0
 0.5415    0
 0.5515    0
 0.5615    0
 0.5715    0
 0.5815    0
 0.5915    0
 0.6015    0
 0.6115    0
 0.6215    0
 0.6316    0
 0.6416    0
 0.6516    0
 0.6616    0
 0.6716    0
 0.6816    0
 0.6916    0
 0.7016    0
 0.7116    0
 0.7216    0
 0.7316    0
 0.7416    0
 0.7516    0
 0.7616    0
 0.7716    0
 0.7816    0
 0.7916    0
 0.8016    0
 0.8116    0
 0.8216    0
 0.8316    0
 0.8416    0
 0.8516    0
 0.8616    0
 0.8716    0
 0.8817    0
 0.8917    0
 0.9017    0
 0.9117    0
 0.9217    0
 0.9317    0
 0.9417    0
 0.9517    0
 0.9617    0
 0.9717    0
 0.9817    0
 0.9917    0
 1.0017    0
 1.0117    0
 1.0217    0
 1.0317    0
 1.0417    0
 1.0517    0
 1.0617    0
 1.0717    0
 1.0817    0
 1.0917    0
 1.1017    0
 1.1117    0
 1.1217    0
 1.1318    0
 1.1418    0
 1.1518    0
 1.1618    0
 1.1718    0
 1.1818    0
 1.1918    0
 1.2018    0
 1.2118    0
 1.2218    0
 1.2318    0
 1.2418    0
 1.2518    0
 1.2618    0
 1.2718    0
 1.2818    0
 1.2918    0
 1.3018    0
 1.3118    0
 1.3218    0
 1.3318    0
 1.3418    0
 1.3518    0
 1.3618    0
 1.3718    0
 1.3819    0
 1.3919    0
 1.4019    0
 1.4119    0
 1.4219    0
 1.4319    0
 1.4419    0
 1.4519    0
 1.4619    0
 1.4719    0
 1.4819    0
 1.4919    0
 1.5019    0
 1.5119    0
 1.5219    0
 1.5319    0
 1.5419    0
 1.5519    0
 1.5619    0
 1.5719    0
 1.5819    0
 1.5919    0
 1.6019    0
 1.6119    0
 1.6219    0
  1.632    0
  1.642    0
  1.652    0
  1.662    0
  1.672    0
  1.682    0
  1.692    0
  1.702    0
  1.712    0
  1.722    0
  1.732    0
  1.742    0
  1.752    0
  1.762    0
  1.772    0
  1.782    0
  1.792    0
  1.802    0
  1.812    0
  1.822    0
  1.832    0
  1.842    0
  1.852    0
  1.862    0
  1.872    0
 1.8821    0
 1.8921    0
 1.9021    0
 1.9121    0
 1.9221    0
 1.9321    0
 1.9421    0
 1.9521    0
 1.9621    0
 1.9721    0
 1.9821    0
 1.9921    0
 2.0021    0
 2.0121    0
 2.0221    0
 2.0321    0
 2.0421    0
 2.0521    0
 2.0621    0
 2.0721    0
 2.0821    0
 2.0921    0
 2.1021    0
 2.1121    0
 2.1221    0
 2.1322    0
 2.1422    0
 2.1522    0
 2.1622    0
 2.1722    0
 2.1822    0
 2.1922    0
 2.2022    0
 2.2122    0
 2.2222    0
 2.2322    0
 2.2422    0
 2.2522    0
 2.2622    0
 2.2722    0
 2.2822    0
 2.2922    0
 2.3022    0
 2.3122    0
 2.3222    0
 2.3322    0
 2.3422    0
 2.3522    0
 2.3622    0
 2.3722    0
 2.3823    0
 2.3923    0
 2.4023    0
 2.4123    0
 2.4223    0
 2.4323    0
 2.4423    0
 2.4523    0
 2.4623    0
 2.4723    0
 2.4823    0
 2.4923    0
 2.5023    0
 2.5123    0
 2.5223    0
 2.5323    0
 2.5423    0
 2.5523    0
 2.5623    0
 2.5723    0
 2.5823    0
 2.5923    0
 2.6023    0
 2.6123    0
 2.6223    0
 2.6324    0
 2.6424    0
 2.6524    0
 2.6624    0
 2.6724    0
 2.6824    0
 2.6924    0
 2.7024    0
 2.7124    0
 2.7224    0
 2.7324    0
 2.7424    0
 2.7524    0
 2.7624    0
 2.7724    0
 2.7824    0
 2.7924    0
 2.8024    0
 2.8124    0
 2.8224    0
 2.8324    0
 2.8424    0
 2.8524    0
 2.8624    0
 2.8724    0
 2.8825    0
 2.8925    0
 2.9025    0
 2.9125    0
 2.9225    0
 2.9325    0
 2.9425    0
 2.9525    0
 2.9625    0
 2.9725    0
 2.9825    0
 2.9925    0
 3.0025    0
 3.0125    0
 3.0225    0
 3.0325    0
 3.0425    0
 3.0525    0
 3.0625    0
 3.0725    0
 3.0825    0
 3.0925    0
 3.1025    0
 3.1125    0
 3.1225    0
 3.1326    0
 3.1426    0
 3.1526    0
 3.1626    0
 3.1726    0
 3.1826    0
 3.1926    0
 3.2026    0
 3.2126    0
 3.2226    0
 3.2326    0
 3.2426    0
 3.2526    0
 3.2626    0
 3.2726    0
 3.2826    0
 3.2926    0
 3.3026    0
 3.3126    0
 3.3226    0
 3.3326    0
 3.3426    0
 3.3526    0
 3.3626    0
 3.3726    0
 3.3827    0
 3.3927    0
 3.4027    0
 3.4127    0
 3.4227    0
 3.4327    0
 3.4427    0
 3.4527    0
 3.4627    0
 3.4727    0
 3.4827    0
 3.4927    0
 3.5027    0
 3.5127    0
 3.5227    0
 3.5327    0
 3.5427    0
 3.5527    0
 3.5627    0
 3.5727    0
 3.5827    0
 3.5927    0
 3.6027    0
 3.6127    0
 3.6227    0
 3.6328    0
 3.6428    0
 3.6528    0
 3.6628    0
 3.6728    0
 3.6828    0
 3.6928    0
 3.7028    0
 3.7128    0
 3.7228    0
 3.7328    0
 3.7428    0
 3.7528    0
 3.7628    0
 3.7728    0
 3.7828    0
 3.7928    0
 3.8028    0
 3.8128    0
 3.8228    0
 3.8328    0
 3.8428    0
 3.8528    0
 3.8628    0
 3.8728    0
 3.8829    0
 3.8929    0
 3.9029    0
 3.9129    0
 3.9229    0
 3.9329    0
 3.9429    0
 3.9529    0
 3.9629    0
 3.9729    0
 3.9829    0
 3.9929    0
 4.0029    0
 4.0129    0
 4.0229    0
 4.0329    0
 4.0429    0
 4.0529    0
 4.0629    0
 4.0729    0
 4.0829    0
 4.0929    0
 4.1029    0
 4.1129    0
 4.1229    0
  4.133    0
  4.143    0
  4.153    0
  4.163    0
  4.173    0
  4.183    0
  4.193    0
  4.203    0
  4.213    0
  4.223    0
  4.233    0
  4.243    0
  4.253    0
  4.263    0
  4.273    0
  4.283    0
  4.293    0
  4.303    0
  4.313    0
  4.323    0
  4.333    0
  4.343    0
  4.353    0
  4.363    0
  4.373    0
 4.3831    0
 4.3931    0
 4.4031    0
 4.4131    0
 4.4231    0
 4.4331    0
 4.4431    0
 4.4531    0
 4.4631    0
 4.4731    0
 4.4831    0
 4.4931    0
 4.5031    0
 4.5131    0
 4.5231    0
 4.5331    0
 4.5431    0
 4.5531    0
 4.5631    0
 4.5731    0
 4.5831    0
 4.5931    0
 4.6031    0
 4.6131    0
 4.6231    0
 4.6332    0
 4.6432    0
 4.6532    0
 4.6632    0
 4.6732    0
 4.6832    0
 4.6932    0
 4.7032    0
 4.7132    0
 4.7232    0
 4.7332    0
 4.7432    0
 4.7532    0
 4.7632    0
 4.7732    0
 4.7832    0
 4.7932    0
 4.8032    0
 4.8132    0
 4.8232    0
 4.8332    0
 4.8432    0
 4.8532    0
 4.8632    0
 4.8732    0
 4.8833    0
 4.8933    0
 4.9033    0
 4.9133    0
 4.9233    0
 4.9333    0
 4.9433    0
 4.9533    0
 4.9633    0
 4.9733    0
 4.9833    0
 4.9933    0
 5.0033    0
 5.0133    0
 5.0233    0
 5.0333    0
 5.0433    0
 5.0533    0
 5.0633    0
 5.0733    0
 5.0833    0
 5.0933    0
 5.1033    0
 5.1133    0
 5.1233    0
 5.1334    0
 5.1434    0
 5.1534    0
 5.1634    0
 5.1734    0
 5.1834    0
 5.1934    0
 5.2034    0
 5.2134    0
 5.2234    0
 5.2334    0
 5.2434    0
 5.2534    0
 5.2634    0
 5.2734    0
 5.2834    0
 5.2934    0
 5.3034    0
 5.3134    0
 5.3234    0
 5.3334    0
 5.3434    0
 5.3534    0
 5.3634    0
 5.3734    0
 5.3835    0
 5.3935    0
 5.4035    0
 5.4135    0
 5.4235    0
 5.4335    0
 5.4435    0
 5.4535    0
 5.4635    0
 5.4735    0
 5.4835    0
 5.4935    0
 5.5035    0
 5.5135    0
 5.5235    0
 5.5335    0
 5.5435    0
 5.5535    0
 5.5635    0
 5.5735    0
 5.5835    0
 5.5935    0
 5.6035    0
 5.6135    0
 5.6235    0
 5.6336    0
 5.6436    0
 5.6536    0
 5.6636    0
 5.6736    0
 5.6836    0
 5.6936    0
 5.7036    0
 5.7136    0
 5.7236    0
 5.7336    0
 5.7436    0
 5.7536    0
 5.7636    0
 5.7736    0
 5.7836    0
 5.7936    0
 5.8036    0
 5.8136    0
 5.8236    0
 5.8336    0
 5.8436    0
 5.8536    0
 5.8636    0
 5.8736    0
 5.8837    0
 5.8937    0
 5.9037    0
 5.9137    0
 5.9237    0
 5.9337    0
 5.9437    0
 5.9537    0
 5.9637    0
 5.9737    0
 5.9837    0
 5.9937    0
 6.0037    0
 6.0137    0
 6.0237    0
 6.0337    0
 6.0437    0
 6.0537    0
 6.0637    0
 6.0737    0
 6.0837    0
 6.0937    0
 6.1037    0
 6.1137    0
 6.1237    0
 6.1338    0
 6.1438    0
 6.1538    0
 6.1638    0
 6.1738    0
 6.1838    0
 6.1938    0
 6.2038    0
 6.2138    0
 6.2238    0
 6.2338    0
 6.2438    0
 6.2538    0
 6.2638    0
 6.2738    0
 6.2838    0
 6.2938    0
 6.3038    0
 6.3138    0
 6.3238    0
 6.3338    0
 6.3438    0
 6.3538    0
 6.3638    0
 6.3738    0
 6.3839    0
 6.3939    0
 6.4039    0
 6.4139    0
 6.4239    0
 6.4339    0
 6.4439    0
 6.4539    0
 6.4639    0
 6.4739    0
 6.4839    0
 6.4939    0
 6.5039    0
 6.5139    0
 6.5239    0
 6.5339    0
 6.5439    0
 6.5539    0
 6.5639    0
 6.5739    0
 6.5839    0
 6.5939    0
 6.6039    0
 6.6139    0
 6.6239    0
  6.634    0
  6.644    0
  6.654    0
  6.664    0
  6.674    0
  6.684    0
  6.694    0
  6.704    0
  6.714    0
  6.724    0
  6.734    0
  6.744    0
  6.754    0
  6.764    0
  6.774    0
  6.784    0
  6.794    0
  6.804    0
  6.814    0
  6.824    0
  6.834    0
  6.844    0
  6.854    0
  6.864    0
  6.874    0
 6.8841    0
 6.8941    0
 6.9041    0
 6.9141    0
 6.9241    0
 6.9341    0
 6.9441    0
 6.9541    0
 6.9641    0
 6.9741    0
 6.9841    0
 6.9941    0
 7.0041    0
 7.0141    0
 7.0241    0
 7.0341    0
 7.0441    0
 7.0541    0
 7.0641    0
 7.0741    0
 7.0841    0
 7.0941    0
 7.1041    0
 7.1141    0
 7.1241    0
 7.1342    0
 7.1442    0
 7.1542    0
 7.1642    0
 7.1742    0
 7.1842    0
 7.1942    0
 7.2042    0
 7.2142    0
 7.2242    0
 7.2342    0
 7.2442    0
 7.2542    0
 7.2642    0
 7.2742    0
 7.2842    0
 7.2942    0
 7.3042    0
 7.3142    0
 7.3242    0
 7.3342    0
 7.3442    0
 7.3542    0
 7.3642    0
 7.3742    0
 7.3843    0
 7.3943    0
 7.4043    0
 7.4143    0
 7.4243    0
 7.4343    0
 7.4443    0
 7.4543    0
 7.4643    0
 7.4743    0
 7.4843    0
 7.4943    0
 7.5043    0
 7.5143    0
 7.5243    0
 7.5343    0
 7.5443    0
 7.5543    0
 7.5643    0
 7.5743    0
 7.5843    0
 7.5943    0
 7.6043    0
 7.6143    0
 7.6243    0
 7.6344    0
 7.6444    0
 7.6544    0
 7.6644    0
 7.6744    0
 7.6844    0
 7.6944    0
 7.7044    0
 7.7144    0
 7.7244    0
 7.7344    0
 7.7444    0
 7.7544    0
 7.7644    0
 7.7744    0
 7.7844    0
 7.7944    0
 7.8044    0
 7.8144    0
 7.8244    0
 7.8344    0
 7.8444    0
 7.8544    0
 7.8644    0
 7.8744    0
 7.8845    0
 7.8945    0
 7.9045    0
 7.9145    0
 7.9245    0
 7.9345    0
 7.9445    0
 7.9545    0
 7.9645    0
 7.9745    0
 7.9845    0
 7.9945    0
 8.0045    0
 8.0145    0
 8.0245    0
 8.0345    0
 8.0445    0
 8.0545    0
 8.0645    0
 8.0745    0
 8.0845    0
 8.0945    0
 8.1045    0
 8.1145    0
 8.1245    0
 8.1346    0
 8.1446    0
 8.1546    0
 8.1646    0
 8.1746    0
 8.1846    0
 8.1946    0
 8.2046    0
 8.2146    0
 8.2246    0
 8.2346    0
 8.2446    0
 8.2546    0
 8.2646    0
 8.2746    0
 8.2846    0
 8.2946    0
 8.3046    0
 8.3146    0
 8.3246    0
 8.3346    0
 8.3446    0
 8.3546    0
 8.3646    0
 8.3746    0
 8.3847    0
 8.3947    0
 8.4047    0
 8.4147    0
 8.4247    0
 8.4347    0
 8.4447    0
 8.4547    0
 8.4647    0
 8.4747    0
 8.4847    0
 8.4947    0
 8.5047    0
 8.5147    0
 8.5247    0
 8.5347    0
 8.5447    0
 8.5547    0
 8.5647    0
 8.5747    0
 8.5847    0
 8.5947    0
 8.6047    0
 8.6147    0
 8.6247    0
 8.6348    0
 8.6448    0
 8.6548    0
 8.6648    0
 8.6748    0
 8.6848    0
 8.6948    0
 8.7048    0
 8.7148    0
 8.7248    0
 8.7348    0
 8.7448    0
 8.7548    0
 8.7648    0
 8.7748    0
 8.7848    0
 8.7948    0
 8.8048    0
 8.8148    0
 8.8248    0
 8.8348    0
 8.8448    0
 8.8548    0
 8.8648    0
 8.8748    0
 8.8849    0
 8.8949    0
 8.9049    0
 8.9149    0
 8.9249    0
 8.9349    0
 8.9449    0
 8.9549    0
 8.9649    0
 8.9749    0
 8.9849    0
 8.9949    0
 9.0049    0
 9.0149    0
 9.0249    0
 9.0349    0
 9.0449    0
 9.0549    0
 9.0649    0
 9.0749    0
 9.0849    0
 9.0949    0
 9.1049    0
 9.1149    0
 9.1249    0
  9.135    0
  9.145    0
  9.155    0
  9.165    0
  9.175    0
  9.185    0
  9.195    0
  9.205    0
  9.215    0
  9.225    0
  9.235    0
  9.245    0
  9.255    0
  9.265    0
  9.275    0
  9.285    0
  9.295    0
  9.305    0
  9.315    0
  9.325    0
  9.335    0
  9.345    0
  9.355    0
  9.365    0
  9.375    0
 9.3851    0
 9.3951    0
 9.4051    0
 9.4151    0
 9.4251    0
 9.4351    0
 9.4451    0
 9.4551    0
 9.4651    0
 9.4751    0
 9.4851    0
 9.4951    0
 9.5051    0
 9.5151    0
 9.5251    0
 9.5351    0
 9.5451    0
 9.5551    0
 9.5651    0
 9.5751    0
 9.5851    0
 9.5951    0
 9.6051    0
 9.6151    0
 9.6251    0
 9.6352    0
 9.6452    0
 9.6552    0
 9.6652    0
 9.6752    0
 9.6852    0
 9.6952    0
 9.7052    0
 9.7152    0
 9.7252    0
 9.7352    0
 9.7452    0
 9.7552    0
 9.7652    0
 9.7752    0
 9.7852    0
 9.7952    0
 9.8052    0
 9.8152    0
 9.8252    0
 9.8352    0
 9.8452    0
 9.8552    0
 9.8652    0
 9.8752    0
 9.8853    0
 9.8953    0
 9.9053    0
 9.9153    0
 9.9253    0
 9.9353    0
 9.9453    0
 9.9553    0
 9.9653    0
 9.9753    0
 9.9853    0
 9.9953    0
10.0053    0
10.0153    0
10.0253    0
10.0353    0
10.0453    0
10.0553    0
10.0653    0
10.0753    0
10.0853    0
10.0953    0
10.1053    0
10.1153    0
10.1253    0
10.1354    0
10.1454    0
10.1554    0
10.1654    0
10.1754    0
10.1854    0
10.1954    0
10.2054    0
10.2154    0
10.2254    0
10.2354    0
10.2454    0
10.2554    0
10.2654    0
10.2754    0
10.2854    0
10.2954    0
10.3054    0
10.3154    0
10.3254    0
10.3354    0
10.3454    0
10.3554    0
10.3654    0
10.3754    0
10.3855    0
10.3955    0
10.4055    0
10.4155    0
10.4255    0
10.4355    0
10.4455    0
10.4555    0
10.4655    0
10.4755    0
10.4855    0
10.4955    0
10.5055    0
10.5155    0
10.5255    0
10.5355    0
10.5455    0
10.5555    0
10.5655    0
10.5755    0
10.5855    0
10.5955    0
10.6055    0
10.6155    0
10.6255    0
10.6356    0
10.6456    0
10.6556    0
10.6656    0
10.6756    0
10.6856    0
10.6956    0
10.7056    0
10.7156    0
10.7256    0
10.7356    0
10.7456    0
10.7556    0
10.7656    0
10.7756    0
10.7856    0
10.7956    0
10.8056    0
10.8156    0
10.8256    0
10.8356    0
10.8456    0
10.8556    0
10.8656    0
10.8756    0
10.8857    0
10.8957    0
10.9057    0
10.9157    0
10.9257    0
10.9357    0
10.9457    0
10.9557    0
10.9657    0
10.9757    0
10.9857    0
10.9957    0
11.0057    0
11.0157    0
11.0257    0
11.0357    0
11.0457    0
11.0557    0
11.0657    0
11.0757    0
11.0857    0
11.0957    0
11.1057    0
11.1157    0
11.1257    0
11.1358    0
11.1458    0
11.1558    0
11.1658    0
11.1758    0
11.1858    0
11.1958    0
11.2058    0
11.2158    0
11.2258    0
11.2358    0
11.2458    0
11.2558    0
11.2658    0
11.2758    0
11.2858    0
11.2958    0
11.3058    0
11.3158    0
11.3258    0
11.3358    0
11.3458    0
11.3558    0
11.3658    0
11.3758    0
11.3859    0
11.3959    0
11.4059    0
11.4159    0
11.4259    0
11.4359    0
11.4459    0
11.4559    0
11.4659    0
11.4759    0
11.4859    0
11.4959    0
11.5059    0
11.5159    0
11.5259    0
11.5359    0
11.5459    0
11.5559    0
11.5659    0
11.5759    0
11.5859    0
11.5959    0
11.6059    0
11.6159    0
11.6259    0
 11.636    0
 11.646    0
 11.656    0
 11.666    0
 11.676    0
 11.686    0
 11.696    0
 11.706    0
 11.716    0
 11.726    0
 11.736    0
 11.746    0
 11.756    0
 11.766    0
 11.776    0
 11.786    0
 11.796    0
 11.806    0
 11.816    0
 11.826    0
 11.836    0
 11.846    0
 11.856    0
 11.866    0
 11.876    0
11.8861    0
11.8961    0
11.9061    0
11.9161    0
11.9261    0
11.9361    0
11.9461    0
11.9561    0
11.9661    0
11.9761    0
11.9861    0
11.9961    0
12.0061    0
12.0161    0
12.0261    0
12.0361    0
12.0461    0
12.0561    0
12.0661    0
12.0761    0
12.0861    0
12.0961    0
12.1061    0
12.1161    0
12.1261    0
12.1362    0
12.1462    0
12.1562    0
12.1662    0
12.1762    0
12.1862    0
12.1962    0
12.2062    0
12.2162    0
12.2262    0
12.2362    0
12.2462    0
12.2562    0
12.2662    0
12.2762    0
12.2862    0
12.2962    0
12.3062    0
12.3162    0
12.3262    0
12.3362    0
12.3462    0
12.3562    0
12.3662    0
12.3762    0
12.3863    0
12.3963    0
12.4063    0
12.4163    0
12.4263    0
12.4363    0
12.4463    0
12.4563    0
12.4663    0
12.4763    0
12.4863    0
12.4963    0
12.5063    0
12.5163    0
12.5263    0
12.5363    0
12.5463    0
12.5563    0
12.5663    0
12.5763    0
12.5863    0
12.5963    0
12.6063    0
12.6163    0
12.6263    0
12.6364    0
12.6464    0
12.6564    0
12.6664    0
12.6764    0
12.6864    0
12.6964    0
12.7064    0
12.7164    0
12.7264    0
12.7364    0
12.7464    0
12.7564    0
12.7664    0
12.7764    0
12.7864    0
12.7964    0
12.8064    0
12.8164    0
12.8264    0
12.8364    0
12.8464    0
12.8564    0
12.8664    0
12.8764    0
12.8865    0
12.8965    0
12.9065    0
12.9165    0
12.9265    0
12.9365    0
12.9465    0
12.9565    0
12.9665    0
12.9765    0
12.9865    0
12.9965    0
13.0065    0
13.0165    0
13.0265    0
13.0365    0
13.0465    0
13.0565    0
